35	151
0	0.03	0.06	0.09	0.12	0.15	0.18	0.21	0.24	 	0.29	0.32	0.35	0.38	0.41	0.44	0.47	0.5	0.53	0.56	0.59	0.62	0.65	0.68	0.71	0.74	0.76	0.79	0.82	0.85	0.88	0.91	0.94	0.97	1																																																																																																																				
[n]
-120	-119.7613	-118.7322	-117.1318	-115.1793	-113.0937	-111.0942	-109.3761	-107.9015	-106.5	-105.0391	-103.5264	-102.0012	-100.5027	-99.053	-97.6096	-96.1552	-94.7018	-93.2571	-91.8001	-90.3489	-88.9608	-87.637	-86.2865	-84.7649	-83.1129	-81.579	-80.0983	-78.4583	-76.7074	-74.9293	-73.1981	-71.4897	-69.7728	-68.0581	-66.3444	-64.6301	-62.9154	-61.2007	-59.4863	-57.7719	-56.057	-54.3425	-52.6305	-50.9158	-49.1922	-47.4707	-45.7747	-44.0976	-42.3967	-40.6806	-38.9674	-37.26	-35.5528	-33.8438	-32.1353	-30.4284	-28.717	-27.0014	-25.2846	-23.5686	-21.8542	-20.1419	-18.4318	-16.7221	-15.0133	-13.307	-11.5975	-9.8895	-8.2025	-6.5109	-4.8197	-3.131	-1.4378	0.2441	1.8897	3.532	5.1809	6.8355	8.4884	10.1254	11.7383	13.3398	14.9466	16.5602	18.1686	19.7758	21.4306	23.1074	24.7774	26.4408	28.0983	29.7507	31.3991	33.0458	34.6929	36.3414	37.991	39.6379	41.2776	42.9099	44.5374	46.1625	47.7878	49.4159	51.049	52.6807	54.3044	55.9309	57.5696	59.2047	60.8083	62.3828	63.9674	65.5619	67.1569	68.7502	70.3465	71.9491	73.5538	75.1546	76.7518	78.3518	79.9517	81.511	83.0424	84.5748	86.1094	87.6451	89.1792	90.7084	92.232	93.7562	95.2808	96.803	98.3217	99.8404	101.3628	102.8875	104.4093	105.9226	107.4216	108.9009	110.3549	111.7777	113.1625	114.5019	115.8299	117.3672	118.9624	120
-120	-118.0177	-116.5539	-114.9995	-113.3119	-111.634	-110.1034	-108.6505	-107.1203	-105.502	-103.8777	-102.2423	-100.5579	-98.8236	-97.0843	-95.3215	-93.4691	-91.5927	-89.7968	-88.0176	-86.1139	-84.2051	-82.1375	-79.8069	-77.1776	-74.3302	-71.5941	-68.8882	-66.4621	-62.8805	-59.3152	-56.487	-54.2688	-51.9934	-49.6703	-47.2997	-45.194	-43.1249	-41.1029	-39.1573	-37.3429	-35.6636	-34.0675	-32.5131	-30.9914	-29.518	-28.0932	-26.7056	-25.343	-23.9979	-22.6679	-21.3545	-20.0595	-18.7843	-17.5306	-16.3001	-15.0927	-13.9043	-12.7321	-11.5754	-10.4342	-9.3081	-8.1955	-7.095	-6.0054	-4.9278	-3.8651	-2.8151	-1.7717	-0.7313	0.3068	1.337	2.353	3.3583	4.3595	5.3564	6.346	7.3257	8.2931	9.2495	10.1976	11.1407	12.0826	13.0267	13.9756	14.9268	15.8736	16.815	17.7556	18.7001	19.6528	20.6153	21.5847	22.5608	23.5484	24.5516	25.5725	26.6116	27.6684	28.7421	29.832	30.9379	32.0592	33.188	34.3146	35.4467	36.5914	37.7403	38.8921	40.056	41.2292	42.4061	43.5963	44.8252	46.1249	47.455	48.7746	50.1069	51.5121	53.0865	54.8878	56.76	58.6094	60.6456	63.1103	65.7291	68.5578	71.8636	75.2915	77.7624	79.162	80.2443	82.3818	84.4953	87.6343	89.4902	91.042	93.563	96.1168	98.4354	100.6698	102.9546	105.2046	107.3268	109.322	111.2596	113.1559	114.896	116.398	118.0098	120
-120	-118.5533	-116.9285	-115.7923	-114.6197	-113.2853	-111.9647	-110.7725	-109.6333	-108.4463	-107.2089	-105.9868	-104.8228	-103.6767	-102.4907	-101.2315	-99.9186	-98.5773	-97.2051	-95.7659	-94.2745	-92.8263	-91.493	-90.2641	-89.1161	-88.025	-86.9678	-85.9285	-84.8969	-83.8628	-82.8163	-81.7641	-80.7471	-79.8097	-78.9956	-78.2973	-77.6248	-76.7357	-76.0624	-75.8522	-75.9058	-75.595	-74.4195	-72.771	-70.9187	-69.0687	-67.4219	-66.0332	-64.7921	-63.5794	-62.2755	-60.7611	-58.9251	-56.7794	-54.4305	-51.9876	-49.559	-47.2076	-44.9151	-42.6547	-40.3999	-38.1279	-35.8377	-33.5363	-31.2304	-28.9266	-26.6272	-24.3308	-22.0359	-19.7411	-17.4456	-15.1497	-12.8544	-10.5606	-8.2688	-5.9781	-3.6868	-1.3928	0.9043	3.2036	5.5035	7.8024	10.0986	12.3978	14.7007	16.968	19.2462	21.5449	23.8222	26.0907	28.3667	30.6553	32.9555	35.2517	37.5185	39.7486	42.0033	44.2769	46.474	48.6505	50.9327	53.167	55.3824	57.6	59.8229	62.0466	64.2491	66.4042	68.4561	70.3345	72.1472	74.0805	75.9448	77.6516	79.2726	80.8469	82.1714	83.0482	83.4902	83.3041	82.9636	82.8528	83.2022	83.9546	84.723	85.6751	87.0552	88.564	89.6876	90.0035	90.5482	92.3614	94.5686	96.3933	97.8677	99.1691	100.4739	101.8844	103.3634	104.8585	106.3179	107.73	109.1436	110.6121	112.168	113.7131	115.0992	116.1947	117.1652	118.4367	120
-120	-116.7549	-115.3914	-114.2409	-113.0038	-111.7417	-110.4799	-109.1046	-107.5663	-105.9819	-104.4742	-103.0087	-101.4829	-99.8698	-98.1982	-96.4644	-94.6253	-92.7438	-90.9585	-89.3499	-87.9127	-86.3981	-84.8956	-83.4315	-81.9251	-80.8309	-79.981	-79.2734	-79.3997	-76.7973	-74.0175	-71.6647	-69.9146	-68.0663	-65.9595	-63.4746	-61.0517	-58.5009	-55.9862	-53.6217	-51.4356	-49.4033	-47.4605	-45.557	-43.6816	-41.8587	-40.0902	-38.3629	-36.6626	-34.9812	-33.316	-31.6684	-30.0413	-28.4385	-26.8636	-25.3163	-23.7959	-22.3042	-20.8398	-19.3976	-17.9739	-16.5657	-15.1723	-13.7926	-12.4259	-11.0706	-9.7249	-8.3869	-7.0543	-5.7261	-4.4026	-3.093	-1.8083	-0.5437	0.7104	1.9586	3.2033	4.4432	5.676	6.9014	8.1199	9.3337	10.5454	11.7588	12.9772	14.1963	15.4056	16.605	17.8037	19.0067	20.2133	21.4225	22.633	23.8473	25.0749	26.3238	27.5962	28.8931	30.2129	31.555	32.9203	34.3095	35.7223	37.1427	38.55	39.9509	41.3576	42.7721	44.1968	45.6344	47.0713	48.4938	49.9232	51.4101	53.0173	54.6791	56.3178	57.946	59.6152	61.4598	63.622	65.938	68.2111	70.611	73.3343	76.0185	79.0372	82.066	84.8206	86.0883	85.3345	84.4666	85.2716	86.7275	89.393	90.7035	91.958	94.831	97.4892	99.5914	101.5756	103.6921	105.7903	107.7338	109.5739	111.4467	113.3561	115.0906	116.4264	117.6934	120
-120	-116.6328	-115.0833	-113.8113	-112.5327	-111.2291	-109.855	-108.2985	-106.5603	-104.7798	-103.0882	-101.5015	-99.9442	-98.3298	-96.6322	-94.8741	-93.0604	-91.2314	-89.4647	-87.8381	-86.3929	-84.8294	-83.3071	-81.9545	-80.8129	-80.4634	-80.1525	-79.8276	-80.1128	-78.5697	-76.904	-74.7931	-73.0771	-71.3311	-69.454	-67.1914	-64.8747	-62.3024	-59.7394	-57.347	-55.1174	-53.0116	-50.9748	-48.9656	-46.9795	-45.0473	-43.1717	-41.3377	-39.5299	-37.7394	-35.9632	-34.2027	-32.4603	-30.7404	-29.0491	-27.3886	-25.7603	-24.1666	-22.6053	-21.0702	-19.5547	-18.0535	-16.5648	-15.0884	-13.6252	-12.1747	-10.7344	-9.3013	-7.8725	-6.4474	-5.028	-3.6265	-2.257	-0.9152	0.4097	1.7267	3.0425	4.3573	5.6686	6.9751	8.2765	9.5741	10.8703	12.1676	13.4686	14.7693	16.0609	17.3425	18.6214	19.9011	21.181	22.461	23.7428	25.0307	26.3338	27.6595	29.0097	30.3845	31.7815	33.1998	34.6416	36.1099	37.6061	39.1097	40.5926	42.0626	43.5362	45.0203	46.5152	48.015	49.506	50.9805	52.4666	54.016	55.6865	57.4207	59.1391	60.8244	62.4994	64.3245	66.5282	68.9667	71.3444	73.7586	76.3967	78.9517	81.8138	84.2631	86.2089	86.9001	85.9646	85.2215	85.9372	87.4874	89.6911	91.4731	93.1538	95.8075	98.2341	100.2537	102.1826	104.1839	106.1485	107.9738	109.7024	111.4465	113.2226	114.8939	116.3101	117.6906	120
-120	-116.7696	-114.9995	-113.5147	-112.098	-110.6521	-109.0728	-107.2694	-105.2916	-103.28	-101.3609	-99.6085	-97.9873	-96.3491	-94.6093	-92.8188	-91.0348	-89.2708	-87.5266	-85.8512	-84.3163	-82.6287	-80.9876	-79.6195	-78.7137	-78.9374	-78.9765	-78.7838	-78.8299	-78.3846	-77.9191	-76.0606	-74.3424	-72.7145	-71.0922	-69.1343	-67.0234	-64.5519	-62.057	-59.7335	-57.5373	-55.4176	-53.3346	-51.2616	-49.2045	-47.2005	-45.254	-43.3495	-41.4707	-39.608	-37.7581	-35.9222	-34.1012	-32.2991	-30.5233	-28.7786	-27.068	-25.3937	-23.7536	-22.1418	-20.5505	-18.9726	-17.4057	-15.85	-14.3089	-12.7832	-11.2701	-9.7654	-8.2642	-6.7656	-5.2729	-3.8008	-2.3662	-0.9653	0.4136	1.7827	3.1527	4.5245	5.8956	7.2644	8.6298	9.9929	11.3553	12.7187	14.0842	15.4487	16.8061	18.155	19.4988	20.8393	22.1764	23.5115	24.8493	26.1959	27.5593	28.9457	30.3565	31.7911	33.2459	34.7202	36.2172	37.7419	39.2979	40.8605	42.395	43.9112	45.43	46.9619	48.5054	50.0465	51.5741	53.0871	54.6167	56.2084	57.9061	59.6693	61.428	63.1348	64.7821	66.5571	68.7782	71.3087	73.7423	76.1123	78.6091	81.0086	83.6295	85.4245	86.4733	86.6312	85.8047	85.524	86.3317	88.0572	89.7527	92.1122	94.311	96.6222	98.7497	100.7153	102.6405	104.5614	106.4244	108.1695	109.815	111.4317	113.0569	114.6602	116.2022	117.7673	120
-120	-118.5939	-116.7187	-115.0156	-113.4218	-111.8742	-110.3099	-108.6662	-106.9159	-105.1057	-103.2912	-101.528	-99.8718	-98.3772	-97.0382	-95.7539	-94.4172	-92.9932	-91.54	-90.121	-88.7668	-87.4614	-86.1856	-84.9267	-83.7145	-82.5865	-81.4411	-80.2112	-79.14	-78.2517	-77.4527	-76.8879	-76.749	-76.9586	-77.3017	-77.562	-77.5973	-77.5005	-77.4034	-77.3955	-77.2717	-77.0785	-77.175	-77.2407	-77.8145	-78.098	-77.6918	-76.6965	-75.5643	-74.5536	-73.6229	-72.6692	-71.5476	-70.1109	-68.2122	-65.8618	-63.445	-61.1285	-58.7218	-56.1573	-53.4726	-50.708	-47.901	-45.0679	-42.2151	-39.3484	-36.4645	-33.5478	-30.606	-27.6588	-24.7166	-21.78	-18.8267	-15.857	-12.9008	-9.9493	-6.9831	-4.0219	-1.1131	1.7475	4.6393	7.5821	10.5556	13.5386	16.5103	19.453	22.3666	25.2568	28.1295	30.9902	33.8416	36.6796	39.5292	42.3837	45.1354	47.8138	50.5374	53.2263	55.8199	58.3878	61.0064	63.6251	66.0404	68.2266	70.6922	73.427	75.9816	78.1387	79.9635	81.5622	83.0615	84.5803	85.7893	86.2213	86.5366	86.5957	86.4828	86.361	85.8717	85.5853	85.6141	85.7423	85.8602	86.4525	87.5286	88.4489	88.9447	89.5923	90.8399	92.5057	94.2921	95.9168	97.3111	98.5649	99.7713	100.9984	102.2469	103.5065	104.7672	106.0187	107.2509	108.4582	109.6498	110.8378	112.0342	113.2509	114.5001	115.7937	117.1438	118.5623	120
-120	-117.5348	-115.5977	-113.8039	-112.0829	-110.2653	-108.2307	-105.994	-103.7037	-101.4563	-99.3186	-97.3926	-95.6771	-93.9848	-92.1875	-90.3637	-88.6264	-86.9545	-85.2502	-83.5073	-81.8005	-79.9225	-78.0742	-76.5792	-75.7817	-76.4054	-76.8451	-76.6895	-76.181	-76.9945	-77.9662	-76.6634	-75.1322	-74.0553	-72.8434	-71.4106	-69.7592	-67.763	-65.6868	-63.702	-61.7355	-59.7291	-57.6752	-55.5838	-53.4855	-51.4267	-49.4216	-47.4617	-45.5316	-43.6222	-41.7298	-39.8536	-37.9889	-36.1327	-34.2868	-32.4518	-30.6289	-28.8206	-27.0303	-25.2609	-23.5116	-21.7798	-20.065	-18.3688	-16.6959	-15.0481	-13.4231	-11.8138	-10.2097	-8.6067	-7.006	-5.4221	-3.8722	-2.3527	-0.8524	0.6393	2.1309	3.6233	5.1145	6.6044	8.0935	9.583	11.0741	12.5666	14.0598	15.5529	17.0449	18.5338	20.0166	21.4912	22.9568	24.4158	25.8757	27.3442	28.8285	30.3339	31.8617	33.4112	34.9789	36.5636	38.1687	39.7997	41.4616	43.126	44.7539	46.3597	47.9702	49.5984	51.2445	52.8971	54.5498	56.2029	57.8688	59.5593	61.2807	63.0361	64.8051	66.5306	68.1799	69.9893	72.3795	75.1102	77.5851	79.8605	82.1777	84.4371	86.5888	87.5311	87.2284	86.5248	85.8138	86.2127	87.102	88.7962	89.6636	92.2962	94.9114	96.6204	98.3312	100.3031	102.3808	104.4038	106.362	108.226	109.9394	111.5038	113.0071	114.5711	116.2997	118.0727	120
-120	-118.027	-116.1854	-114.3604	-112.5308	-110.5455	-108.3284	-105.968	-103.6567	-101.4568	-99.3846	-97.4989	-95.7801	-94.0737	-92.2769	-90.4626	-88.7382	-87.0805	-85.3911	-83.6544	-81.923	-80.0378	-78.1742	-76.6407	-75.7559	-76.2257	-76.7833	-76.6691	-76.1042	-76.9309	-77.9575	-76.9391	-75.6344	-74.9867	-73.8979	-72.6144	-71.1494	-69.4567	-67.6666	-65.8965	-64.085	-62.1801	-60.1851	-58.1264	-56.0462	-53.9933	-51.9889	-50.0316	-48.1079	-46.2095	-44.3327	-42.4758	-40.6303	-38.788	-36.9436	-35.0914	-33.2284	-31.3583	-29.4895	-27.6327	-25.7946	-23.9789	-22.1875	-20.4226	-18.6874	-16.983	-15.3074	-13.6521	-12.0046	-10.3576	-8.7097	-7.0722	-5.4601	-3.8694	-2.2899	-0.7162	0.8549	2.423	3.9867	5.5476	7.108	8.6696	10.2336	11.7996	13.3669	14.9353	16.5057	18.0761	19.6421	21.1999	22.7471	24.2849	25.8203	27.3608	28.9143	30.4865	32.0797	33.6938	35.3265	36.9766	38.646	40.3388	42.0585	43.7779	45.4607	47.1233	48.7934	50.4822	52.1937	53.9268	55.6767	57.4366	59.199	60.953	62.6878	64.4272	66.1853	67.931	69.6413	71.562	74.1029	76.9305	79.4049	81.6622	83.9727	86.2684	88.2517	89.098	88.465	87.4291	86.532	86.8825	87.6321	89.0362	89.661	91.8711	94.2933	95.8668	97.5392	99.5563	101.746	103.9223	106.0532	108.0904	109.9421	111.5948	113.1574	114.7652	116.5202	118.2578	120
-120	-118.5061	-116.8088	-114.9913	-113.0716	-110.9414	-108.5844	-106.1592	-103.8916	-101.8079	-99.8713	-98.0776	-96.3773	-94.667	-92.8858	-91.0937	-89.3785	-87.7219	-86.0458	-84.335	-82.6119	-80.763	-78.931	-77.3778	-76.3569	-76.5406	-77.1612	-77.1109	-76.6101	-77.1925	-77.9958	-77.2345	-76.195	-75.9845	-74.9796	-73.7851	-72.4714	-71.0622	-69.5462	-67.9772	-66.3155	-64.5195	-62.5984	-60.5893	-58.5435	-56.5113	-54.521	-52.5778	-50.67	-48.7904	-46.9357	-45.1035	-43.2829	-41.4605	-39.6241	-37.761	-35.8634	-33.9365	-31.9931	-30.0522	-28.1281	-26.2312	-24.3662	-22.5353	-20.7396	-18.979	-17.2515	-15.5482	-13.8548	-12.1615	-10.4637	-8.7695	-7.0909	-5.4236	-3.7584	-2.0956	-0.4383	1.2118	2.854	4.4911	6.1273	7.7647	9.4048	11.0474	12.692	14.3393	15.991	17.6454	19.2974	20.9422	22.5754	24.1966	25.8112	27.4264	29.0506	30.6908	32.35	34.0294	35.728	37.445	39.1804	40.9361	42.7136	44.4881	46.2278	47.9511	49.6854	51.4375	53.2151	55.0289	56.8753	58.7391	60.5923	62.4036	64.1494	65.8712	67.6172	69.3932	71.1933	73.2489	75.9143	78.7857	81.2391	83.4842	85.7952	88.1426	89.9928	90.8725	90.0692	88.7363	87.558	87.6672	88.2003	89.2274	89.7182	91.3749	93.5142	95.0774	96.8026	98.8627	101.1279	103.4334	105.7204	107.918	109.9106	111.6795	113.344	115.0216	116.7794	118.4351	120
-120	-118.9079	-117.3442	-115.5342	-113.5315	-111.2853	-108.838	-106.4017	-104.2194	-102.2843	-100.5124	-98.8339	-97.1664	-95.4624	-93.7079	-91.9463	-90.2395	-88.578	-86.9153	-85.243	-83.5523	-81.768	-80.0013	-78.4457	-77.2755	-77.1247	-77.7505	-77.7861	-77.4362	-77.6493	-78.0935	-77.5371	-76.7588	-76.9164	-75.9703	-74.8201	-73.6206	-72.4262	-71.1233	-69.7085	-68.1668	-66.4702	-64.6268	-62.676	-60.6735	-58.6715	-56.7036	-54.7791	-52.8879	-51.0233	-49.1828	-47.3648	-45.5574	-43.7445	-41.9085	-40.0311	-38.1007	-36.1231	-34.115	-32.1007	-30.1011	-28.1323	-26.2007	-24.3085	-22.4541	-20.6358	-18.8519	-17.0936	-15.3462	-13.5984	-11.8429	-10.0855	-8.3357	-6.5887	-4.8367	-3.0841	-1.3389	0.3959	2.1199	3.8366	5.551	7.2657	8.9824	10.7017	12.4238	14.1498	15.8815	17.6175	19.353	21.0825	22.7999	24.5029	26.1954	27.8834	29.5762	31.2819	33.0042	34.7457	36.507	38.2877	40.0859	41.9012	43.7332	45.5602	47.3555	49.1395	50.938	52.7512	54.5878	56.4688	58.3914	60.3334	62.2514	64.1007	65.8516	67.5583	69.298	71.1162	73.024	75.2051	77.9109	80.7318	83.138	85.3641	87.6422	90.0102	91.7524	92.7158	91.8394	90.2197	88.7298	88.4705	88.7514	89.3974	89.8543	91.0306	92.946	94.6304	96.4778	98.5549	100.812	103.1486	105.4942	107.7678	109.8496	111.7223	113.4995	115.2589	117.0144	118.5825	120
-120	-119.1679	-117.6676	-115.8266	-113.7369	-111.4093	-108.9283	-106.5296	-104.4507	-102.6605	-101.0419	-99.4723	-97.8447	-96.1579	-94.4369	-92.7097	-91.0132	-89.3481	-87.7006	-86.0725	-84.4291	-82.7227	-81.0416	-79.4996	-78.2023	-77.7524	-78.3227	-78.466	-78.3199	-78.1709	-78.2633	-77.8346	-77.2706	-77.6503	-76.7518	-75.6169	-74.4924	-73.3953	-72.1956	-70.8549	-69.3788	-67.755	-65.9821	-64.0897	-62.132	-60.1645	-58.2222	-56.3147	-54.4317	-52.5666	-50.7182	-48.8874	-47.0644	-45.2338	-43.3767	-41.4722	-39.5069	-37.4864	-35.4286	-33.3595	-31.3029	-29.2776	-27.2907	-25.3436	-23.4321	-21.553	-19.7049	-17.8799	-16.0647	-14.2482	-12.4224	-10.5919	-8.7654	-6.9385	-5.1036	-3.2666	-1.4371	0.3812	2.1879	3.9857	5.7787	7.5698	9.3611	11.1544	12.9507	14.7515	16.5578	18.3684	20.1794	21.9852	23.7787	25.5562	27.3197	29.0745	30.8302	32.5952	34.3742	36.1707	37.9871	39.8234	41.6763	43.5438	45.4238	47.2977	49.1442	50.9849	52.8431	54.7101	56.5912	58.512	60.4706	62.4423	64.3791	66.2339	67.9803	69.6787	71.4248	73.2984	75.3214	77.5852	80.1898	82.8248	85.1518	87.3396	89.5103	91.8215	93.4705	94.4893	93.5738	91.6529	89.8849	89.1959	89.2304	89.5739	90.0888	91.0606	92.9604	94.9041	96.9217	98.9657	101.0834	103.2793	105.5054	107.6987	109.7641	111.6878	113.5563	115.3957	117.1625	118.6779	120
-120	-119.8417	-118.9588	-117.5026	-115.6242	-113.4745	-111.2048	-108.9661	-106.9095	-105.1511	-103.6552	-102.3449	-101.1436	-99.9745	-98.7645	-97.4921	-96.1748	-94.8308	-93.4785	-92.1363	-90.8224	-89.5551	-88.3471	-87.1875	-86.0598	-84.9539	-83.8798	-82.8507	-81.8742	-80.9562	-80.0976	-79.3156	-78.7502	-78.4533	-78.1959	-78.7895	-78.7386	-78.5646	-78.7754	-78.9519	-79.0448	-79.0393	-78.9284	-78.7375	-78.631	-78.797	-78.1518	-78.2625	-77.378	-77.8194	-78.1194	-77.7184	-76.927	-75.969	-74.8795	-73.6759	-72.3463	-70.8367	-69.0897	-67.0504	-64.726	-62.1868	-59.5062	-56.7444	-53.9215	-51.0508	-48.1418	-45.157	-42.0232	-38.6693	-35.1054	-31.4354	-27.7627	-24.1228	-20.5056	-16.8973	-13.2661	-9.5739	-5.7993	-1.971	1.8822	5.7634	9.6602	13.5579	17.4542	21.3518	25.2326	29.0446	32.7395	36.3275	39.8505	43.3432	46.7973	50.189	53.5046	56.7754	60.0446	63.3304	66.4995	69.365	71.9404	74.564	77.4796	80.3693	82.8896	85.2577	87.5637	89.5343	91.0552	92.3447	93.8691	94.8423	95.5759	96.1034	95.6984	95.3609	94.2664	93.1449	91.9441	91.082	90.2815	89.7243	90.0021	89.6367	89.5998	89.7719	90.0695	90.3993	90.8342	91.7407	93.2162	94.9778	96.7177	98.2058	99.48	100.6363	101.7695	102.9334	104.134	105.3743	106.6574	107.9865	109.3648	110.7953	112.2812	113.8101	115.3263	116.7666	118.0678	119.1667	120
-120	-119.2677	-117.7891	-115.9808	-113.9829	-111.9214	-109.8678	-107.8885	-106.0697	-104.4824	-103.0987	-101.8664	-100.7256	-99.6117	-98.4727	-97.2917	-96.0781	-94.8449	-93.6142	-92.3843	-91.1716	-89.9962	-88.8696	-87.7924	-86.7513	-85.7314	-84.7336	-83.7716	-82.8513	-81.9747	-81.1268	-80.3069	-79.574	-78.9413	-78.5581	-78.3385	-78.6214	-78.6703	-78.6176	-78.85	-79.0102	-79.1479	-79.2741	-79.2787	-79.1333	-78.8997	-79.0699	-78.696	-78.5402	-78.0271	-77.8604	-78.178	-77.9604	-77.3631	-76.4766	-75.4111	-74.0611	-72.5117	-70.8796	-69.0713	-67.0596	-64.7871	-62.2645	-59.5486	-56.6885	-53.6879	-50.5618	-47.3367	-44.0085	-40.5233	-36.8302	-32.9467	-28.9519	-24.9037	-20.7932	-16.6183	-12.3676	-8.0308	-3.5713	0.921	5.5055	10.1793	14.8377	19.4944	24.1373	28.6837	33.1269	37.4308	41.5071	45.428	49.2513	52.9886	56.635	60.2048	63.7038	67.0709	70.1769	72.9874	75.6285	78.4625	81.6164	84.3448	86.216	88.1278	90.2983	92.0031	93.144	94.2341	95.5078	96.3778	96.9455	97.3076	97.0885	96.6345	95.1473	93.9495	92.8191	91.8873	91.1051	90.1468	90.4227	90.0315	89.7714	89.9623	90.3031	90.6743	91.2818	92.34	93.9587	96.0315	98.151	99.9681	101.3737	102.4494	103.3111	104.0634	104.7752	105.4829	106.2178	107.012	107.8979	108.9099	110.0668	111.3528	112.7366	114.1629	115.5645	116.8786	118.0507	119.0767	120
-120	-119.1074	-117.4819	-115.5588	-113.5163	-111.5043	-109.5852	-107.7749	-106.103	-104.5997	-103.2464	-102.0098	-100.8493	-99.7199	-98.585	-97.4229	-96.2271	-95.0058	-93.7825	-92.5571	-91.3471	-90.1727	-89.0436	-87.9607	-86.9146	-85.8947	-84.9032	-83.9463	-83.0314	-82.1777	-81.3401	-80.5139	-79.8177	-79.1418	-78.6737	-78.5634	-78.5734	-78.5149	-78.6051	-78.8701	-78.9397	-79.0548	-79.2429	-79.3432	-79.254	-79.0775	-79.2669	-79.0827	-78.8054	-78.3859	-78.1595	-78.1577	-77.8495	-77.3269	-76.5175	-75.4401	-73.9012	-72.1343	-70.3685	-68.4744	-66.4544	-64.2478	-61.8162	-59.1815	-56.3519	-53.3162	-50.0936	-46.7245	-43.2418	-39.645	-35.9286	-32.0933	-28.1528	-24.1102	-19.9363	-15.6262	-11.1942	-6.6793	-2.0902	2.4942	7.2149	12.0453	16.8381	21.6153	26.3645	31.0037	35.5465	39.9636	44.1438	48.1486	52.0455	55.8626	59.6041	63.2693	66.7967	70.0505	72.9798	75.6945	78.3667	81.3005	84.5608	87.1421	88.4815	90.0219	92.1571	93.7436	94.6459	95.5458	96.6195	97.4882	97.9205	98.1598	98.1812	97.6192	95.806	94.5955	93.5863	92.6503	91.9241	90.6922	90.9702	90.4483	90.1267	90.355	90.724	91.1042	91.9681	93.5237	95.6685	98.1934	100.6098	102.5613	103.9896	104.9873	105.6771	106.1686	106.5475	106.8786	107.2196	107.6295	108.1687	108.9028	109.8698	111.0424	112.3672	113.7798	115.2118	116.5974	117.8752	119.0128	120
